SpectraSuite Data File
++++++++++++++++++++++++++++++++++++
Date: Fri May 01 10:29:36 EST 2015
User: ocean
Dark Spectrum Present: No
Reference Spectrum Present: No
Number of Sampled Component Spectra: 1
Spectrometers: USB4E02642
Integration Time (usec): 150000 (USB4E02642)
Spectra Averaged: 1 (USB4E02642)
Boxcar Smoothing: 0 (USB4E02642)
Correct for Electrical Dark: No (USB4E02642)
Strobe/Lamp Enabled: No (USB4E02642)
Correct for Detector Non-linearity: No (USB4E02642)
Correct for Stray Light: No (USB4E02642)
Number of Pixels in Processed Spectrum: 3648
>>>>>Begin Processed Spectral Data<<<<<
179.22	1026.03
179.43	1026.03
179.65	1026.03
179.86	1044.46
180.08	1001.46
180.29	1308.65
180.51	1216.49
180.72	1267.69
180.94	1320.94
181.15	1255.40
181.37	1318.89
181.58	1175.53
181.80	1316.84
182.01	1316.84
182.23	1273.84
182.44	1339.37
182.66	1208.30
182.87	1222.64
183.09	1193.97
183.30	1255.40
183.52	1388.52
183.73	1185.77
183.95	1366.00
184.16	1286.12
184.38	1353.71
184.59	1300.46
184.81	1255.40
185.02	1322.99
185.24	1179.63
185.45	1234.93
185.67	1255.40
185.88	1368.04
186.10	1136.62
186.31	1265.64
186.53	1325.04
186.74	1146.86
186.96	1269.74
187.17	1316.84
187.39	1259.50
187.60	1208.30
187.81	1515.50
188.03	1363.95
188.24	1265.64
188.46	1222.64
188.67	1390.57
188.89	1249.26
189.10	1341.42
189.32	1294.32
189.53	1273.84
189.75	1404.91
189.96	1347.56
190.18	1259.50
190.39	1279.98
190.61	1253.36
190.82	1210.35
191.04	1417.19
191.25	1427.43
191.46	1310.70
191.68	1239.02
191.89	1335.28
192.11	1265.64
192.32	1269.74
192.54	1308.65
192.75	1296.36
192.97	1349.61
193.18	1294.32
193.40	1292.27
193.61	1306.60
193.83	1411.05
194.04	1339.37
194.25	1292.27
194.47	1460.20
194.68	1247.21
194.90	1251.31
195.11	1374.19
195.33	1320.94
195.54	1380.33
195.76	1374.19
195.97	1284.08
196.18	1294.32
196.40	1390.57
196.61	1236.97
196.83	1345.52
197.04	1269.74
197.26	1400.81
197.47	1351.66
197.69	1251.31
197.90	1329.13
198.11	1292.27
198.33	1271.79
198.54	1275.88
198.76	1396.71
198.97	1413.10
199.19	1292.27
199.40	1277.93
199.61	1236.97
199.83	1275.88
200.04	1359.85
200.26	1312.75
200.47	1292.27
200.69	1275.88
200.90	1390.57
201.11	1325.04
201.33	1191.92
201.54	1454.06
201.76	1302.51
201.97	1247.21
202.19	1341.42
202.40	1382.38
202.61	1304.56
202.83	1247.21
203.04	1271.79
203.26	1402.86
203.47	1310.70
203.68	1439.72
203.90	1269.74
204.11	1372.14
204.33	1257.45
204.54	1380.33
204.75	1277.93
204.97	1304.56
205.18	1224.69
205.40	1257.45
205.61	1241.07
205.83	1521.64
206.04	1226.73
206.25	1331.18
206.47	1390.57
206.68	1368.04
206.90	1288.17
207.11	1259.50
207.32	1103.86
207.54	1333.23
207.75	1361.90
207.97	1251.31
208.18	1396.71
208.39	1357.80
208.61	1335.28
208.82	1417.19
209.03	1325.04
209.25	1372.14
209.46	1402.86
209.68	1210.35
209.89	1271.79
210.10	1284.08
210.32	1316.84
210.53	1316.84
210.75	1413.10
210.96	1148.91
211.17	1275.88
211.39	1224.69
211.60	1247.21
211.82	1189.87
212.03	1214.45
212.24	1210.35
212.46	1269.74
212.67	1333.23
212.88	1206.25
213.10	1249.26
213.31	1298.41
213.53	1349.61
213.74	1366.00
213.95	1347.56
214.17	1312.75
214.38	1355.76
214.59	1349.61
214.81	1376.24
215.02	1335.28
215.23	1300.46
215.45	1251.31
215.66	1275.88
215.88	1400.81
216.09	1267.69
216.30	1302.51
216.52	1390.57
216.73	1255.40
216.94	1355.76
217.16	1329.13
217.37	1464.30
217.58	1234.93
217.80	1390.57
218.01	1263.60
218.22	1402.86
218.44	1259.50
218.65	1318.89
218.87	1216.49
219.08	1351.66
219.29	1370.09
219.51	1382.38
219.72	1302.51
219.93	1292.27
220.15	1456.11
220.36	1204.21
220.57	1361.90
220.79	1253.36
221.00	1277.93
221.21	1429.48
221.43	1349.61
221.64	1193.97
221.85	1314.80
222.07	1341.42
222.28	1273.84
222.49	1314.80
222.71	1241.07
222.92	1259.50
223.13	1210.35
223.35	1292.27
223.56	1298.41
223.77	1282.03
223.99	1320.94
224.20	1406.95
224.41	1236.97
224.63	1400.81
224.84	1394.67
225.05	1398.76
225.27	1372.14
225.48	1447.91
225.69	1318.89
225.91	1230.83
226.12	1247.21
226.33	1466.35
226.55	1224.69
226.76	1269.74
226.97	1312.75
227.19	1316.84
227.40	1249.26
227.61	1300.46
227.82	1302.51
228.04	1220.59
228.25	1284.08
228.46	1275.88
228.68	1339.37
228.89	1357.80
229.10	1302.51
229.32	1306.60
229.53	1265.64
229.74	1351.66
229.96	1363.95
230.17	1263.60
230.38	1501.16
230.59	1273.84
230.81	1230.83
231.02	1226.73
231.23	1210.35
231.45	1302.51
231.66	1251.31
231.87	1292.27
232.09	1329.13
232.30	1327.08
232.51	1417.19
232.72	1279.98
232.94	1122.29
233.15	1419.24
233.36	1255.40
233.58	1298.41
233.79	1241.07
234.00	1335.28
234.21	1359.85
234.43	1265.64
234.64	1312.75
234.85	1337.32
235.07	1259.50
235.28	1312.75
235.49	1263.60
235.70	1437.67
235.92	1318.89
236.13	1273.84
236.34	1353.71
236.56	1191.92
236.77	1304.56
236.98	1302.51
237.19	1300.46
237.41	1361.90
237.62	1267.69
237.83	1429.48
238.04	1394.67
238.26	1314.80
238.47	1380.33
238.68	1341.42
238.89	1245.16
239.11	1394.67
239.32	1300.46
239.53	1355.76
239.75	1241.07
239.96	1247.21
240.17	1222.64
240.38	1257.45
240.60	1277.93
240.81	1271.79
241.02	1423.34
241.23	1261.55
241.45	1388.52
241.66	1222.64
241.87	1351.66
242.08	1343.47
242.30	1251.31
242.51	1251.31
242.72	1290.22
242.93	1230.83
243.15	1318.89
243.36	1406.95
243.57	1236.97
243.78	1347.56
244.00	1308.65
244.21	1204.21
244.42	1298.41
244.63	1392.62
244.85	1296.36
245.06	1302.51
245.27	1413.10
245.48	1290.22
245.70	1347.56
245.91	1423.34
246.12	1271.79
246.33	1349.61
246.54	1460.20
246.76	1300.46
246.97	1341.42
247.18	1226.73
247.39	1216.49
247.61	1404.91
247.82	1302.51
248.03	1259.50
248.24	1363.95
248.45	1345.52
248.67	1359.85
248.88	1261.55
249.09	1230.83
249.30	1382.38
249.52	1372.14
249.73	1308.65
249.94	1310.70
250.15	1300.46
250.36	1277.93
250.58	1460.20
250.79	1363.95
251.00	1306.60
251.21	1380.33
251.43	1292.27
251.64	1462.25
251.85	1232.88
252.06	1304.56
252.27	1380.33
252.49	1277.93
252.70	1302.51
252.91	1271.79
253.12	1181.68
253.33	1304.56
253.55	1251.31
253.76	1245.16
253.97	1320.94
254.18	1308.65
254.39	1349.61
254.61	1236.97
254.82	1349.61
255.03	1380.33
255.24	1366.00
255.45	1296.36
255.67	1312.75
255.88	1359.85
256.09	1318.89
256.30	1296.36
256.51	1398.76
256.73	1282.03
256.94	1226.73
257.15	1368.04
257.36	1284.08
257.57	1386.47
257.78	1263.60
258.00	1333.23
258.21	1392.62
258.42	1290.22
258.63	1325.04
258.84	1257.45
259.06	1253.36
259.27	1294.32
259.48	1320.94
259.69	1368.04
259.90	1249.26
260.11	1396.71
260.33	1241.07
260.54	1302.51
260.75	1325.04
260.96	1331.18
261.17	1366.00
261.38	1400.81
261.60	1363.95
261.81	1277.93
262.02	1316.84
262.23	1288.17
262.44	1409.00
262.65	1292.27
262.87	1286.12
263.08	1329.13
263.29	1284.08
263.50	1314.80
263.71	1322.99
263.92	1245.16
264.13	1382.38
264.35	1275.88
264.56	1271.79
264.77	1368.04
264.98	1230.83
265.19	1181.68
265.40	1312.75
265.62	1325.04
265.83	1374.19
266.04	1335.28
266.25	1316.84
266.46	1247.21
266.67	1398.76
266.88	1302.51
267.10	1236.97
267.31	1249.26
267.52	1282.03
267.73	1255.40
267.94	1251.31
268.15	1204.21
268.36	1243.12
268.57	1445.87
268.79	1355.76
269.00	1302.51
269.21	1263.60
269.42	1267.69
269.63	1196.01
269.84	1253.36
270.05	1163.25
270.27	1314.80
270.48	1284.08
270.69	1239.02
270.90	1265.64
271.11	1337.32
271.32	1366.00
271.53	1255.40
271.74	1286.12
271.96	1376.24
272.17	1234.93
272.38	1368.04
272.59	1230.83
272.80	1292.27
273.01	1320.94
273.22	1255.40
273.43	1368.04
273.64	1267.69
273.86	1437.67
274.07	1322.99
274.28	1282.03
274.49	1337.32
274.70	1404.91
274.91	1372.14
275.12	1390.57
275.33	1257.45
275.54	1316.84
275.76	1331.18
275.97	1251.31
276.18	1277.93
276.39	1306.60
276.60	1288.17
276.81	1435.63
277.02	1314.80
277.23	1226.73
277.44	1351.66
277.65	1275.88
277.86	1296.36
278.08	1359.85
278.29	1355.76
278.50	1425.39
278.71	1249.26
278.92	1284.08
279.13	1239.02
279.34	1265.64
279.55	1251.31
279.76	1327.08
279.97	1331.18
280.18	1431.53
280.40	1427.43
280.61	1255.40
280.82	1398.76
281.03	1232.88
281.24	1400.81
281.45	1267.69
281.66	1234.93
281.87	1343.47
282.08	1316.84
282.29	1392.62
282.50	1181.68
282.71	1216.49
282.92	1411.05
283.13	1404.91
283.35	1325.04
283.56	1396.71
283.77	1193.97
283.98	1271.79
284.19	1300.46
284.40	1210.35
284.61	1261.55
284.82	1402.86
285.03	1392.62
285.24	1245.16
285.45	1239.02
285.66	1306.60
285.87	1292.27
286.08	1271.79
286.29	1413.10
286.50	1230.83
286.71	1302.51
286.93	1304.56
287.14	1316.84
287.35	1345.52
287.56	1271.79
287.77	1359.85
287.98	1304.56
288.19	1286.12
288.40	1349.61
288.61	1273.84
288.82	1349.61
289.03	1421.29
289.24	1304.56
289.45	1472.49
289.66	1269.74
289.87	1349.61
290.08	1189.87
290.29	1198.06
290.50	1394.67
290.71	1208.30
290.92	1449.96
291.13	1298.41
291.34	1366.00
291.55	1191.92
291.76	1218.54
291.97	1257.45
292.18	1335.28
292.39	1310.70
292.61	1388.52
292.82	1175.53
293.03	1456.11
293.24	1175.53
293.45	1144.81
293.66	1271.79
293.87	1247.21
294.08	1259.50
294.29	1279.98
294.50	1437.67
294.71	1431.53
294.92	1216.49
295.13	1390.57
295.34	1253.36
295.55	1271.79
295.76	1312.75
295.97	1396.71
296.18	1372.14
296.39	1284.08
296.60	1366.00
296.81	1261.55
297.02	1269.74
297.23	1515.50
297.44	1329.13
297.65	1322.99
297.86	1290.22
298.07	1265.64
298.28	1306.60
298.49	1265.64
298.70	1310.70
298.91	1357.80
299.12	1298.41
299.33	1282.03
299.54	1392.62
299.75	1316.84
299.96	1351.66
300.17	1449.96
300.38	1282.03
300.59	1171.44
300.80	1312.75
301.01	1241.07
301.22	1249.26
301.43	1353.71
301.64	1208.30
301.85	1220.59
302.06	1388.52
302.27	1249.26
302.48	1548.26
302.69	1230.83
302.89	1341.42
303.10	1279.98
303.31	1167.34
303.52	1312.75
303.73	1351.66
303.94	1206.25
304.15	1228.78
304.36	1222.64
304.57	1306.60
304.78	1284.08
304.99	1318.89
305.20	1298.41
305.41	1398.76
305.62	1298.41
305.83	1337.32
306.04	1232.88
306.25	1349.61
306.46	1259.50
306.67	1415.15
306.88	1331.18
307.09	1247.21
307.30	1251.31
307.51	1421.29
307.72	1351.66
307.93	1191.92
308.14	1286.12
308.35	1304.56
308.55	1292.27
308.76	1089.52
308.97	1261.55
309.18	1406.95
309.39	1316.84
309.60	1267.69
309.81	1427.43
310.02	1259.50
310.23	1292.27
310.44	1245.16
310.65	1335.28
310.86	1241.07
311.07	1406.95
311.28	1318.89
311.49	1232.88
311.70	1355.76
311.91	1214.45
312.11	1290.22
312.32	1269.74
312.53	1167.34
312.74	1304.56
312.95	1368.04
313.16	1372.14
313.37	1345.52
313.58	1208.30
313.79	1138.67
314.00	1255.40
314.21	1234.93
314.42	1239.02
314.63	1249.26
314.83	1325.04
315.04	1292.27
315.25	1271.79
315.46	1370.09
315.67	1236.97
315.88	1343.47
316.09	1300.46
316.30	1329.13
316.51	1386.47
316.72	1269.74
316.93	1243.12
317.13	1298.41
317.34	1189.87
317.55	1468.39
317.76	1249.26
317.97	1218.54
318.18	1351.66
318.39	1357.80
318.60	1333.23
318.81	1243.12
319.02	1402.86
319.23	1304.56
319.43	1335.28
319.64	1341.42
319.85	1263.60
320.06	1312.75
320.27	1386.47
320.48	1296.36
320.69	1247.21
320.90	1318.89
321.11	1343.47
321.31	1316.84
321.52	1277.93
321.73	1388.52
321.94	1310.70
322.15	1212.40
322.36	1425.39
322.57	1351.66
322.78	1337.32
322.98	1366.00
323.19	1241.07
323.40	1220.59
323.61	1271.79
323.82	1226.73
324.03	1179.63
324.24	1404.91
324.45	1306.60
324.65	1241.07
324.86	1411.05
325.07	1368.04
325.28	1325.04
325.49	1269.74
325.70	1284.08
325.91	1327.08
326.12	1292.27
326.32	1243.12
326.53	1279.98
326.74	1259.50
326.95	1269.74
327.16	1310.70
327.37	1396.71
327.58	1282.03
327.78	1214.45
327.99	1290.22
328.20	1312.75
328.41	1243.12
328.62	1189.87
328.83	1247.21
329.04	1236.97
329.24	1249.26
329.45	1212.40
329.66	1265.64
329.87	1361.90
330.08	1296.36
330.29	1271.79
330.49	1382.38
330.70	1128.43
330.91	1308.65
331.12	1306.60
331.33	1318.89
331.54	1318.89
331.74	1302.51
331.95	1245.16
332.16	1222.64
332.37	1204.21
332.58	1337.32
332.79	1212.40
332.99	1341.42
333.20	1327.08
333.41	1341.42
333.62	1337.32
333.83	1306.60
334.04	1294.32
334.24	1333.23
334.45	1259.50
334.66	1271.79
334.87	1284.08
335.08	1337.32
335.29	1220.59
335.49	1329.13
335.70	1318.89
335.91	1347.56
336.12	1347.56
336.33	1236.97
336.53	1331.18
336.74	1239.02
336.95	1275.88
337.16	1243.12
337.37	1263.60
337.57	1284.08
337.78	1245.16
337.99	1286.12
338.20	1191.92
338.41	1282.03
338.62	1269.74
338.82	1361.90
339.03	1218.54
339.24	1308.65
339.45	1392.62
339.65	1165.29
339.86	1265.64
340.07	1339.37
340.28	1277.93
340.49	1345.52
340.69	1271.79
340.90	1322.99
341.11	1327.08
341.32	1286.12
341.53	1230.83
341.73	1306.60
341.94	1271.79
342.15	1245.16
342.36	1370.09
342.57	1445.87
342.77	1282.03
342.98	1304.56
343.19	1267.69
343.40	1275.88
343.60	1366.00
343.81	1263.60
344.02	1312.75
344.23	1333.23
344.44	1202.16
344.64	1206.25
344.85	1314.80
345.06	1316.84
345.27	1277.93
345.47	1206.25
345.68	1284.08
345.89	1298.41
346.10	1400.81
346.30	1220.59
346.51	1304.56
346.72	1366.00
346.93	1257.45
347.13	1230.83
347.34	1419.24
347.55	1273.84
347.76	1232.88
347.97	1372.14
348.17	1382.38
348.38	1306.60
348.59	1257.45
348.80	1298.41
349.00	1251.31
349.21	1331.18
349.42	1421.29
349.63	1374.19
349.83	1224.69
350.04	1279.98
350.25	1292.27
350.45	1185.77
350.66	1259.50
350.87	1298.41
351.08	1228.78
351.28	1341.42
351.49	1230.83
351.70	1409.00
351.91	1183.73
352.11	1275.88
352.32	1327.08
352.53	1308.65
352.74	1261.55
352.94	1286.12
353.15	1288.17
353.36	1298.41
353.56	1259.50
353.77	1245.16
353.98	1353.71
354.19	1429.48
354.39	1288.17
354.60	1249.26
354.81	1400.81
355.02	1249.26
355.22	1349.61
355.43	1322.99
355.64	1259.50
355.84	1251.31
356.05	1212.40
356.26	1429.48
356.47	1363.95
356.67	1429.48
356.88	1382.38
357.09	1212.40
357.29	1275.88
357.50	1429.48
357.71	1224.69
357.92	1304.56
358.12	1337.32
358.33	1302.51
358.54	1277.93
358.74	1374.19
358.95	1355.76
359.16	1306.60
359.36	1177.58
359.57	1259.50
359.78	1388.52
359.98	1255.40
360.19	1298.41
360.40	1366.00
360.61	1505.26
360.81	1341.42
361.02	1161.20
361.23	1255.40
361.43	1157.10
361.64	1267.69
361.85	1265.64
362.05	1466.35
362.26	1239.02
362.47	1241.07
362.67	1290.22
362.88	1366.00
363.09	1271.79
363.29	1228.78
363.50	1226.73
363.71	1202.16
363.91	1327.08
364.12	1386.47
364.33	1325.04
364.53	1357.80
364.74	1226.73
364.95	1232.88
365.15	1359.85
365.36	1351.66
365.57	1314.80
365.77	1306.60
365.98	1279.98
366.19	1265.64
366.39	1265.64
366.60	1351.66
366.81	1218.54
367.01	1329.13
367.22	1331.18
367.43	1335.28
367.63	1241.07
367.84	1304.56
368.05	1269.74
368.25	1374.19
368.46	1378.28
368.67	1292.27
368.87	1357.80
369.08	1193.97
369.29	1181.68
369.49	1318.89
369.70	1269.74
369.91	1329.13
370.11	1298.41
370.32	1265.64
370.52	1312.75
370.73	1331.18
370.94	1196.01
371.14	1366.00
371.35	1288.17
371.56	1335.28
371.76	1320.94
371.97	1460.20
372.18	1185.77
372.38	1255.40
372.59	1273.84
372.79	1292.27
373.00	1202.16
373.21	1392.62
373.41	1398.76
373.62	1255.40
373.83	1273.84
374.03	1279.98
374.24	1282.03
374.44	1290.22
374.65	1433.58
374.86	1232.88
375.06	1282.03
375.27	1322.99
375.47	1359.85
375.68	1353.71
375.89	1310.70
376.09	1357.80
376.30	1302.51
376.50	1308.65
376.71	1447.91
376.92	1232.88
377.12	1341.42
377.33	1386.47
377.54	1300.46
377.74	1370.09
377.95	1447.91
378.15	1282.03
378.36	1325.04
378.57	1406.95
378.77	1363.95
378.98	1267.69
379.18	1247.21
379.39	1322.99
379.59	1292.27
379.80	1298.41
380.01	1267.69
380.21	1316.84
380.42	1294.32
380.62	1298.41
380.83	1187.82
381.04	1275.88
381.24	1312.75
381.45	1382.38
381.65	1335.28
381.86	1253.36
382.06	1454.06
382.27	1368.04
382.48	1292.27
382.68	1382.38
382.89	1366.00
383.09	1458.15
383.30	1214.45
383.51	1392.62
383.71	1425.39
383.92	1261.55
384.12	1298.41
384.33	1310.70
384.53	1243.12
384.74	1337.32
384.94	1333.23
385.15	1366.00
385.36	1282.03
385.56	1251.31
385.77	1339.37
385.97	1245.16
386.18	1271.79
386.38	1296.36
386.59	1286.12
386.79	1329.13
387.00	1249.26
387.21	1388.52
387.41	1464.30
387.62	1390.57
387.82	1251.31
388.03	1296.36
388.23	1243.12
388.44	1306.60
388.64	1320.94
388.85	1355.76
389.06	1339.37
389.26	1419.24
389.47	1292.27
389.67	1318.89
389.88	1445.87
390.08	1232.88
390.29	1370.09
390.49	1347.56
390.70	1490.92
390.90	1341.42
391.11	1239.02
391.31	1376.24
391.52	1300.46
391.72	1335.28
391.93	1308.65
392.13	1363.95
392.34	1263.60
392.55	1458.15
392.75	1431.53
392.96	1279.98
393.16	1425.39
393.37	1339.37
393.57	1294.32
393.78	1273.84
393.98	1349.61
394.19	1419.24
394.39	1382.38
394.60	1425.39
394.80	1320.94
395.01	1445.87
395.21	1388.52
395.42	1419.24
395.62	1257.45
395.83	1308.65
396.03	1366.00
396.24	1437.67
396.44	1404.91
396.65	1423.34
396.85	1316.84
397.06	1394.67
397.26	1327.08
397.47	1290.22
397.67	1433.58
397.88	1355.76
398.08	1366.00
398.29	1355.76
398.49	1302.51
398.70	1322.99
398.90	1216.49
399.11	1296.36
399.31	1423.34
399.52	1337.32
399.72	1339.37
399.93	1413.10
400.13	1349.61
400.34	1431.53
400.54	1402.86
400.75	1366.00
400.95	1374.19
401.15	1505.26
401.36	1349.61
401.56	1288.17
401.77	1378.28
401.97	1279.98
402.18	1361.90
402.38	1347.56
402.59	1378.28
402.79	1398.76
403.00	1349.61
403.20	1302.51
403.41	1398.76
403.61	1271.79
403.82	1404.91
404.02	1331.18
404.22	1376.24
404.43	1335.28
404.63	1382.38
404.84	1400.81
405.04	1296.36
405.25	1308.65
405.45	1300.46
405.66	1400.81
405.86	1372.14
406.07	1497.07
406.27	1339.37
406.47	1388.52
406.68	1314.80
406.88	1390.57
407.09	1384.43
407.29	1394.67
407.50	1320.94
407.70	1322.99
407.91	1290.22
408.11	1488.87
408.31	1368.04
408.52	1415.15
408.72	1386.47
408.93	1372.14
409.13	1404.91
409.34	1554.41
409.54	1417.19
409.74	1427.43
409.95	1378.28
410.15	1339.37
410.36	1322.99
410.56	1341.42
410.77	1443.82
410.97	1325.04
411.17	1443.82
411.38	1390.57
411.58	1437.67
411.79	1435.63
411.99	1370.09
412.19	1378.28
412.40	1419.24
412.60	1548.26
412.81	1388.52
413.01	1488.87
413.22	1449.96
413.42	1390.57
413.62	1501.16
413.83	1458.15
414.03	1366.00
414.24	1511.40
414.44	1501.16
414.64	1388.52
414.85	1445.87
415.05	1495.02
415.26	1417.19
415.46	1472.49
415.66	1355.76
415.87	1411.05
416.07	1419.24
416.28	1366.00
416.48	1511.40
416.68	1486.83
416.89	1476.59
417.09	1480.68
417.29	1441.77
417.50	1497.07
417.70	1435.63
417.91	1452.01
418.11	1341.42
418.31	1462.25
418.52	1415.15
418.72	1382.38
418.93	1423.34
419.13	1433.58
419.33	1427.43
419.54	1411.05
419.74	1370.09
419.94	1488.87
420.15	1425.39
420.35	1482.73
420.56	1472.49
420.76	1423.34
420.96	1372.14
421.17	1460.20
421.37	1538.02
421.57	1492.97
421.78	1396.71
421.98	1474.54
422.18	1542.12
422.39	1507.30
422.59	1441.77
422.80	1421.29
423.00	1464.30
423.20	1423.34
423.41	1486.83
423.61	1527.78
423.81	1470.44
424.02	1597.42
424.22	1503.21
424.42	1542.12
424.63	1517.54
424.83	1515.50
425.03	1546.22
425.24	1497.07
425.44	1492.97
425.64	1468.39
425.85	1466.35
426.05	1460.20
426.25	1449.96
426.46	1482.73
426.66	1499.11
426.86	1591.27
427.07	1476.59
427.27	1525.74
427.47	1755.11
427.68	1468.39
427.88	1548.26
428.08	1667.05
428.29	1439.72
428.49	1476.59
428.69	1630.18
428.90	1394.67
429.10	1452.01
429.30	1529.83
429.51	1558.50
429.71	1626.09
429.91	1497.07
430.12	1556.46
430.32	1708.01
430.52	1533.93
430.72	1474.54
430.93	1636.33
431.13	1521.64
431.33	1644.52
431.54	1611.75
431.74	1513.45
431.94	1452.01
432.15	1560.55
432.35	1591.27
432.55	1529.83
