SpectraSuite Data File
++++++++++++++++++++++++++++++++++++
Date: Fri May 01 10:36:14 EST 2015
User: ocean
Dark Spectrum Present: No
Reference Spectrum Present: No
Number of Sampled Component Spectra: 1
Spectrometers: USB4E02642
Integration Time (usec): 150000 (USB4E02642)
Spectra Averaged: 1 (USB4E02642)
Boxcar Smoothing: 0 (USB4E02642)
Correct for Electrical Dark: No (USB4E02642)
Strobe/Lamp Enabled: No (USB4E02642)
Correct for Detector Non-linearity: No (USB4E02642)
Correct for Stray Light: No (USB4E02642)
Number of Pixels in Processed Spectrum: 3648
>>>>>Begin Processed Spectral Data<<<<<
179.22	954.35
179.43	954.35
179.65	954.35
179.86	1083.38
180.08	1081.33
180.29	1267.69
180.51	1249.26
180.72	1298.41
180.94	1325.04
181.15	1206.25
181.37	1384.43
181.58	1228.78
181.80	1290.22
182.01	1241.07
182.23	1292.27
182.44	1380.33
182.66	1247.21
182.87	1292.27
183.09	1271.79
183.30	1288.17
183.52	1376.24
183.73	1279.98
183.95	1368.04
184.16	1245.16
184.38	1351.66
184.59	1306.60
184.81	1284.08
185.02	1390.57
185.24	1282.03
185.45	1300.46
185.67	1355.76
185.88	1298.41
186.10	1173.49
186.31	1341.42
186.53	1302.51
186.74	1226.73
186.96	1349.61
187.17	1357.80
187.39	1302.51
187.60	1325.04
187.81	1472.49
188.03	1406.95
188.24	1306.60
188.46	1306.60
188.67	1511.40
188.89	1265.64
189.10	1454.06
189.32	1357.80
189.53	1308.65
189.75	1456.11
189.96	1388.52
190.18	1261.55
190.39	1241.07
190.61	1269.74
190.82	1279.98
191.04	1415.15
191.25	1388.52
191.46	1388.52
191.68	1337.32
191.89	1355.76
192.11	1253.36
192.32	1296.36
192.54	1265.64
192.75	1277.93
192.97	1353.71
193.18	1275.88
193.40	1345.52
193.61	1378.28
193.83	1384.43
194.04	1366.00
194.25	1347.56
194.47	1357.80
194.68	1327.08
194.90	1241.07
195.11	1402.86
195.33	1279.98
195.54	1406.95
195.76	1380.33
195.97	1296.36
196.18	1380.33
196.40	1419.24
196.61	1232.88
196.83	1374.19
197.04	1388.52
197.26	1466.35
197.47	1398.76
197.69	1300.46
197.90	1325.04
198.11	1269.74
198.33	1261.55
198.54	1290.22
198.76	1415.15
198.97	1380.33
199.19	1333.23
199.40	1290.22
199.61	1314.80
199.83	1243.12
200.04	1284.08
200.26	1370.09
200.47	1302.51
200.69	1316.84
200.90	1400.81
201.11	1261.55
201.33	1257.45
201.54	1460.20
201.76	1386.47
201.97	1327.08
202.19	1366.00
202.40	1421.29
202.61	1333.23
202.83	1177.58
203.04	1341.42
203.26	1363.95
203.47	1341.42
203.68	1431.53
203.90	1335.28
204.11	1298.41
204.33	1226.73
204.54	1439.72
204.75	1290.22
204.97	1314.80
205.18	1210.35
205.40	1263.60
205.61	1327.08
205.83	1509.35
206.04	1318.89
206.25	1353.71
206.47	1366.00
206.68	1437.67
206.90	1345.52
207.11	1288.17
207.32	1198.06
207.54	1304.56
207.75	1390.57
207.97	1277.93
208.18	1310.70
208.39	1257.45
208.61	1263.60
208.82	1349.61
209.03	1394.67
209.25	1380.33
209.46	1382.38
209.68	1265.64
209.89	1298.41
210.10	1331.18
210.32	1329.13
210.53	1368.04
210.75	1402.86
210.96	1273.84
211.17	1251.31
211.39	1361.90
211.60	1230.83
211.82	1284.08
212.03	1257.45
212.24	1318.89
212.46	1337.32
212.67	1271.79
212.88	1173.49
213.10	1292.27
213.31	1349.61
213.53	1421.29
213.74	1441.77
213.95	1411.05
214.17	1384.43
214.38	1363.95
214.59	1286.12
214.81	1488.87
215.02	1325.04
215.23	1232.88
215.45	1239.02
215.66	1253.36
215.88	1372.14
216.09	1282.03
216.30	1406.95
216.52	1304.56
216.73	1157.10
216.94	1331.18
217.16	1396.71
217.37	1441.77
217.58	1327.08
217.80	1476.59
218.01	1333.23
218.22	1433.58
218.44	1275.88
218.65	1333.23
218.87	1269.74
219.08	1372.14
219.29	1386.47
219.51	1363.95
219.72	1318.89
219.93	1398.76
220.15	1404.91
220.36	1320.94
220.57	1341.42
220.79	1265.64
221.00	1204.21
221.21	1409.00
221.43	1325.04
221.64	1310.70
221.85	1320.94
222.07	1341.42
222.28	1292.27
222.49	1372.14
222.71	1196.01
222.92	1357.80
223.13	1224.69
223.35	1263.60
223.56	1402.86
223.77	1265.64
223.99	1279.98
224.20	1437.67
224.41	1288.17
224.63	1409.00
224.84	1253.36
225.05	1456.11
225.27	1388.52
225.48	1445.87
225.69	1269.74
225.91	1200.11
226.12	1372.14
226.33	1394.67
226.55	1271.79
226.76	1282.03
226.97	1243.12
227.19	1347.56
227.40	1296.36
227.61	1308.65
227.82	1355.76
228.04	1306.60
228.25	1255.40
228.46	1341.42
228.68	1386.47
228.89	1392.62
229.10	1273.84
229.32	1294.32
229.53	1269.74
229.74	1306.60
229.96	1284.08
230.17	1314.80
230.38	1400.81
230.59	1300.46
230.81	1267.69
231.02	1202.16
231.23	1153.01
231.45	1429.48
231.66	1339.37
231.87	1353.71
232.09	1394.67
232.30	1279.98
232.51	1339.37
232.72	1372.14
232.94	1218.54
233.15	1548.26
233.36	1261.55
233.58	1292.27
233.79	1288.17
234.00	1316.84
234.21	1282.03
234.43	1335.28
234.64	1335.28
234.85	1404.91
235.07	1308.65
235.28	1423.34
235.49	1343.47
235.70	1505.26
235.92	1357.80
236.13	1337.32
236.34	1394.67
236.56	1234.93
236.77	1351.66
236.98	1337.32
237.19	1353.71
237.41	1406.95
237.62	1316.84
237.83	1423.34
238.04	1429.48
238.26	1314.80
238.47	1337.32
238.68	1402.86
238.89	1269.74
239.11	1400.81
239.32	1374.19
239.53	1310.70
239.75	1241.07
239.96	1257.45
240.17	1279.98
240.38	1255.40
240.60	1359.85
240.81	1306.60
241.02	1312.75
241.23	1329.13
241.45	1411.05
241.66	1296.36
241.87	1361.90
242.08	1372.14
242.30	1314.80
242.51	1357.80
242.72	1204.21
242.93	1228.78
243.15	1341.42
243.36	1454.06
243.57	1331.18
243.78	1339.37
244.00	1417.19
244.21	1144.81
244.42	1372.14
244.63	1306.60
244.85	1226.73
245.06	1277.93
245.27	1447.91
245.48	1296.36
245.70	1355.76
245.91	1456.11
246.12	1327.08
246.33	1351.66
246.54	1474.54
246.76	1296.36
246.97	1271.79
247.18	1243.12
247.39	1322.99
247.61	1480.68
247.82	1333.23
248.03	1261.55
248.24	1370.09
248.45	1320.94
248.67	1398.76
248.88	1357.80
249.09	1308.65
249.30	1353.71
249.52	1431.53
249.73	1292.27
249.94	1282.03
250.15	1224.69
250.36	1275.88
250.58	1480.68
250.79	1325.04
251.00	1372.14
251.21	1419.24
251.43	1384.43
251.64	1521.64
251.85	1267.69
252.06	1218.54
252.27	1392.62
252.49	1386.47
252.70	1335.28
252.91	1292.27
253.12	1314.80
253.33	1409.00
253.55	1331.18
253.76	1279.98
253.97	1257.45
254.18	1335.28
254.39	1331.18
254.61	1292.27
254.82	1353.71
255.03	1378.28
255.24	1366.00
255.45	1329.13
255.67	1310.70
255.88	1388.52
256.09	1279.98
256.30	1339.37
256.51	1503.21
256.73	1357.80
256.94	1179.63
257.15	1411.05
257.36	1314.80
257.57	1476.59
257.78	1308.65
258.00	1351.66
258.21	1355.76
258.42	1314.80
258.63	1300.46
258.84	1394.67
259.06	1234.93
259.27	1349.61
259.48	1404.91
259.69	1337.32
259.90	1204.21
260.11	1406.95
260.33	1300.46
260.54	1329.13
260.75	1366.00
260.96	1296.36
261.17	1366.00
261.38	1404.91
261.60	1366.00
261.81	1300.46
262.02	1357.80
262.23	1329.13
262.44	1368.04
262.65	1296.36
262.87	1335.28
263.08	1404.91
263.29	1300.46
263.50	1316.84
263.71	1331.18
263.92	1353.71
264.13	1439.72
264.35	1386.47
264.56	1394.67
264.77	1447.91
264.98	1308.65
265.19	1216.49
265.40	1267.69
265.62	1325.04
265.83	1314.80
266.04	1388.52
266.25	1386.47
266.46	1255.40
266.67	1372.14
266.88	1370.09
267.10	1306.60
267.31	1357.80
267.52	1296.36
267.73	1292.27
267.94	1322.99
268.15	1271.79
268.36	1224.69
268.57	1437.67
268.79	1406.95
269.00	1357.80
269.21	1300.46
269.42	1300.46
269.63	1372.14
269.84	1275.88
270.05	1277.93
270.27	1308.65
270.48	1310.70
270.69	1243.12
270.90	1335.28
271.11	1279.98
271.32	1384.43
271.53	1316.84
271.74	1271.79
271.96	1298.41
272.17	1378.28
272.38	1349.61
272.59	1200.11
272.80	1279.98
273.01	1366.00
273.22	1308.65
273.43	1411.05
273.64	1273.84
273.86	1441.77
274.07	1306.60
274.28	1335.28
274.49	1413.10
274.70	1351.66
274.91	1359.85
275.12	1464.30
275.33	1193.97
275.54	1284.08
275.76	1306.60
275.97	1292.27
276.18	1361.90
276.39	1357.80
276.60	1372.14
276.81	1359.85
277.02	1339.37
277.23	1284.08
277.44	1249.26
277.65	1232.88
277.86	1419.24
278.08	1415.15
278.29	1341.42
278.50	1478.63
278.71	1296.36
278.92	1368.04
279.13	1202.16
279.34	1327.08
279.55	1329.13
279.76	1349.61
279.97	1212.40
280.18	1515.50
280.40	1345.52
280.61	1275.88
280.82	1296.36
281.03	1304.56
281.24	1427.43
281.45	1341.42
281.66	1239.02
281.87	1269.74
282.08	1390.57
282.29	1366.00
282.50	1251.31
282.71	1218.54
282.92	1492.97
283.13	1482.73
283.35	1263.60
283.56	1322.99
283.77	1284.08
283.98	1370.09
284.19	1312.75
284.40	1253.36
284.61	1318.89
284.82	1357.80
285.03	1486.83
285.24	1210.35
285.45	1298.41
285.66	1386.47
285.87	1304.56
286.08	1265.64
286.29	1411.05
286.50	1300.46
286.71	1333.23
286.93	1308.65
287.14	1351.66
287.35	1361.90
287.56	1353.71
287.77	1402.86
287.98	1302.51
288.19	1396.71
288.40	1275.88
288.61	1312.75
288.82	1347.56
289.03	1462.25
289.24	1398.76
289.45	1511.40
289.66	1312.75
289.87	1394.67
290.08	1312.75
290.29	1292.27
290.50	1359.85
290.71	1220.59
290.92	1458.15
291.13	1314.80
291.34	1386.47
291.55	1253.36
291.76	1263.60
291.97	1234.93
292.18	1267.69
292.39	1337.32
292.61	1374.19
292.82	1247.21
293.03	1452.01
293.24	1167.34
293.45	1220.59
293.66	1300.46
293.87	1341.42
294.08	1277.93
294.29	1196.01
294.50	1441.77
294.71	1454.06
294.92	1294.32
295.13	1404.91
295.34	1312.75
295.55	1292.27
295.76	1355.76
295.97	1363.95
296.18	1396.71
296.39	1347.56
296.60	1382.38
296.81	1294.32
297.02	1214.45
297.23	1382.38
297.44	1384.43
297.65	1316.84
297.86	1372.14
298.07	1247.21
298.28	1361.90
298.49	1314.80
298.70	1322.99
298.91	1355.76
299.12	1216.49
299.33	1243.12
299.54	1279.98
299.75	1239.02
299.96	1314.80
300.17	1327.08
300.38	1288.17
300.59	1204.21
300.80	1370.09
301.01	1304.56
301.22	1327.08
301.43	1359.85
301.64	1284.08
301.85	1161.20
302.06	1382.38
302.27	1271.79
302.48	1507.30
302.69	1251.31
302.89	1322.99
303.10	1308.65
303.31	1216.49
303.52	1337.32
303.73	1388.52
303.94	1337.32
304.15	1255.40
304.36	1275.88
304.57	1267.69
304.78	1394.67
304.99	1298.41
305.20	1267.69
305.41	1406.95
305.62	1372.14
305.83	1269.74
306.04	1206.25
306.25	1339.37
306.46	1329.13
306.67	1437.67
306.88	1357.80
307.09	1333.23
307.30	1316.84
307.51	1386.47
307.72	1355.76
307.93	1263.60
308.14	1325.04
308.35	1236.97
308.55	1384.43
308.76	1243.12
308.97	1273.84
309.18	1402.86
309.39	1353.71
309.60	1224.69
309.81	1388.52
310.02	1204.21
310.23	1202.16
310.44	1251.31
310.65	1312.75
310.86	1374.19
311.07	1394.67
311.28	1337.32
311.49	1294.32
311.70	1378.28
311.91	1296.36
312.11	1361.90
312.32	1337.32
312.53	1298.41
312.74	1363.95
312.95	1230.83
313.16	1386.47
313.37	1314.80
313.58	1173.49
313.79	1247.21
314.00	1337.32
314.21	1198.06
314.42	1228.78
314.63	1255.40
314.83	1331.18
315.04	1390.57
315.25	1341.42
315.46	1386.47
315.67	1343.47
315.88	1288.17
316.09	1329.13
316.30	1314.80
316.51	1325.04
316.72	1279.98
316.93	1196.01
317.13	1316.84
317.34	1218.54
317.55	1503.21
317.76	1236.97
317.97	1263.60
318.18	1335.28
318.39	1384.43
318.60	1333.23
318.81	1243.12
319.02	1388.52
319.23	1439.72
319.43	1331.18
319.64	1359.85
319.85	1286.12
320.06	1298.41
320.27	1304.56
320.48	1339.37
320.69	1452.01
320.90	1253.36
321.11	1302.51
321.31	1325.04
321.52	1290.22
321.73	1406.95
321.94	1343.47
322.15	1243.12
322.36	1386.47
322.57	1386.47
322.78	1198.06
322.98	1439.72
323.19	1341.42
323.40	1306.60
323.61	1316.84
323.82	1226.73
324.03	1279.98
324.24	1396.71
324.45	1366.00
324.65	1251.31
324.86	1335.28
325.07	1452.01
325.28	1359.85
325.49	1331.18
325.70	1306.60
325.91	1333.23
326.12	1267.69
326.32	1284.08
326.53	1273.84
326.74	1353.71
326.95	1406.95
327.16	1300.46
327.37	1492.97
327.58	1267.69
327.78	1290.22
327.99	1304.56
328.20	1271.79
328.41	1273.84
328.62	1308.65
328.83	1273.84
329.04	1249.26
329.24	1298.41
329.45	1214.45
329.66	1339.37
329.87	1345.52
330.08	1370.09
330.29	1345.52
330.49	1374.19
330.70	1263.60
330.91	1298.41
331.12	1314.80
331.33	1261.55
331.54	1345.52
331.74	1236.97
331.95	1366.00
332.16	1382.38
332.37	1251.31
332.58	1363.95
332.79	1218.54
332.99	1363.95
333.20	1370.09
333.41	1359.85
333.62	1357.80
333.83	1259.50
334.04	1320.94
334.24	1366.00
334.45	1183.73
334.66	1302.51
334.87	1298.41
335.08	1329.13
335.29	1261.55
335.49	1306.60
335.70	1349.61
335.91	1406.95
336.12	1431.53
336.33	1267.69
336.53	1239.02
336.74	1322.99
336.95	1355.76
337.16	1314.80
337.37	1296.36
337.57	1312.75
337.78	1327.08
337.99	1452.01
338.20	1261.55
338.41	1193.97
338.62	1312.75
338.82	1431.53
339.03	1253.36
339.24	1267.69
339.45	1333.23
339.65	1234.93
339.86	1241.07
340.07	1400.81
340.28	1347.56
340.49	1398.76
340.69	1288.17
340.90	1394.67
341.11	1355.76
341.32	1308.65
341.53	1243.12
341.73	1300.46
341.94	1378.28
342.15	1347.56
342.36	1402.86
342.57	1480.68
342.77	1273.84
342.98	1314.80
343.19	1290.22
343.40	1267.69
343.60	1318.89
343.81	1304.56
344.02	1322.99
344.23	1404.91
344.44	1200.11
344.64	1234.93
344.85	1384.43
345.06	1294.32
345.27	1267.69
345.47	1234.93
345.68	1327.08
345.89	1263.60
346.10	1474.54
346.30	1212.40
346.51	1308.65
346.72	1423.34
346.93	1329.13
347.13	1292.27
347.34	1351.66
347.55	1331.18
347.76	1370.09
347.97	1376.24
348.17	1302.51
348.38	1273.84
348.59	1320.94
348.80	1298.41
349.00	1292.27
349.21	1308.65
349.42	1376.24
349.63	1421.29
349.83	1304.56
350.04	1279.98
350.25	1312.75
350.45	1251.31
350.66	1261.55
350.87	1353.71
351.08	1261.55
351.28	1488.87
351.49	1224.69
351.70	1384.43
351.91	1243.12
352.11	1312.75
352.32	1298.41
352.53	1306.60
352.74	1267.69
352.94	1349.61
353.15	1216.49
353.36	1282.03
353.56	1316.84
353.77	1288.17
353.98	1384.43
354.19	1398.76
354.39	1224.69
354.60	1216.49
354.81	1366.00
355.02	1314.80
355.22	1349.61
355.43	1263.60
355.64	1214.45
355.84	1411.05
356.05	1239.02
356.26	1400.81
356.47	1243.12
356.67	1349.61
356.88	1406.95
357.09	1257.45
357.29	1349.61
357.50	1398.76
357.71	1228.78
357.92	1388.52
358.12	1275.88
358.33	1372.14
358.54	1222.64
358.74	1456.11
358.95	1349.61
359.16	1392.62
359.36	1214.45
359.57	1357.80
359.78	1366.00
359.98	1322.99
360.19	1275.88
360.40	1396.71
360.61	1411.05
360.81	1347.56
361.02	1208.30
361.23	1265.64
361.43	1292.27
361.64	1335.28
361.85	1388.52
362.05	1423.34
362.26	1271.79
362.47	1316.84
362.67	1224.69
362.88	1404.91
363.09	1236.97
363.29	1239.02
363.50	1269.74
363.71	1265.64
363.91	1337.32
364.12	1425.39
364.33	1325.04
364.53	1413.10
364.74	1337.32
364.95	1259.50
365.15	1259.50
365.36	1193.97
365.57	1384.43
365.77	1357.80
365.98	1368.04
366.19	1425.39
366.39	1333.23
366.60	1302.51
366.81	1196.01
367.01	1454.06
367.22	1314.80
367.43	1306.60
367.63	1243.12
367.84	1347.56
368.05	1357.80
368.25	1269.74
368.46	1325.04
368.67	1318.89
368.87	1288.17
369.08	1255.40
369.29	1226.73
369.49	1308.65
369.70	1347.56
369.91	1300.46
370.11	1333.23
370.32	1253.36
370.52	1345.52
370.73	1406.95
370.94	1214.45
371.14	1341.42
371.35	1396.71
371.56	1411.05
371.76	1333.23
371.97	1454.06
372.18	1193.97
372.38	1200.11
372.59	1296.36
372.79	1325.04
373.00	1202.16
373.21	1349.61
373.41	1314.80
373.62	1247.21
373.83	1202.16
374.03	1279.98
374.24	1374.19
374.44	1312.75
374.65	1423.34
374.86	1355.76
375.06	1304.56
375.27	1318.89
375.47	1325.04
375.68	1343.47
375.89	1404.91
376.09	1478.63
376.30	1267.69
376.50	1325.04
376.71	1384.43
376.92	1251.31
377.12	1345.52
377.33	1284.08
377.54	1269.74
377.74	1343.47
377.95	1437.67
378.15	1298.41
378.36	1296.36
378.57	1396.71
378.77	1427.43
378.98	1259.50
379.18	1255.40
379.39	1341.42
379.59	1245.16
379.80	1232.88
380.01	1308.65
380.21	1404.91
380.42	1245.16
380.62	1333.23
380.83	1200.11
381.04	1292.27
381.24	1353.71
381.45	1386.47
381.65	1292.27
381.86	1169.39
382.06	1341.42
382.27	1298.41
382.48	1322.99
382.68	1380.33
382.89	1398.76
383.09	1411.05
383.30	1265.64
383.51	1366.00
383.71	1363.95
383.92	1288.17
384.12	1286.12
384.33	1339.37
384.53	1187.82
384.74	1325.04
384.94	1402.86
385.15	1347.56
385.36	1419.24
385.56	1306.60
385.77	1288.17
385.97	1257.45
386.18	1224.69
386.38	1249.26
386.59	1302.51
386.79	1320.94
387.00	1259.50
387.21	1269.74
387.41	1404.91
387.62	1376.24
387.82	1294.32
388.03	1306.60
388.23	1259.50
388.44	1267.69
388.64	1292.27
388.85	1345.52
389.06	1318.89
389.26	1443.82
389.47	1343.47
389.67	1255.40
389.88	1492.97
390.08	1181.68
390.29	1304.56
390.49	1286.12
390.70	1431.53
390.90	1333.23
391.11	1296.36
391.31	1343.47
391.52	1181.68
391.72	1361.90
391.93	1202.16
392.13	1269.74
392.34	1269.74
392.55	1345.52
392.75	1322.99
392.96	1230.83
393.16	1378.28
393.37	1304.56
393.57	1255.40
393.78	1275.88
393.98	1374.19
394.19	1390.57
394.39	1282.03
394.60	1431.53
394.80	1308.65
395.01	1363.95
395.21	1454.06
395.42	1335.28
395.62	1236.97
395.83	1267.69
396.03	1343.47
396.24	1480.68
396.44	1435.63
396.65	1435.63
396.85	1310.70
397.06	1320.94
397.26	1212.40
397.47	1222.64
397.67	1427.43
397.88	1265.64
398.08	1202.16
398.29	1316.84
398.49	1335.28
398.70	1310.70
398.90	1222.64
399.11	1243.12
399.31	1370.09
399.52	1241.07
399.72	1286.12
399.93	1363.95
400.13	1230.83
400.34	1380.33
400.54	1357.80
400.75	1363.95
400.95	1312.75
401.15	1411.05
401.36	1255.40
401.56	1300.46
401.77	1310.70
401.97	1271.79
402.18	1322.99
402.38	1255.40
402.59	1284.08
402.79	1308.65
403.00	1341.42
403.20	1355.76
403.41	1279.98
403.61	1308.65
403.82	1255.40
404.02	1327.08
404.22	1296.36
404.43	1251.31
404.63	1341.42
404.84	1343.47
405.04	1173.49
405.25	1331.18
405.45	1294.32
405.66	1251.31
405.86	1279.98
406.07	1404.91
406.27	1284.08
406.47	1314.80
406.68	1294.32
406.88	1322.99
407.09	1318.89
407.29	1337.32
407.50	1218.54
407.70	1302.51
407.91	1198.06
408.11	1368.04
408.31	1288.17
408.52	1304.56
408.72	1169.39
408.93	1343.47
409.13	1406.95
409.34	1435.63
409.54	1359.85
409.74	1417.19
409.95	1138.67
410.15	1243.12
410.36	1290.22
410.56	1196.01
410.77	1357.80
410.97	1210.35
411.17	1341.42
411.38	1269.74
411.58	1384.43
411.79	1296.36
411.99	1322.99
412.19	1327.08
412.40	1335.28
412.60	1400.81
412.81	1327.08
413.01	1384.43
413.22	1333.23
413.42	1251.31
413.62	1347.56
413.83	1347.56
414.03	1284.08
414.24	1304.56
414.44	1388.52
414.64	1325.04
414.85	1302.51
415.05	1361.90
415.26	1306.60
415.46	1232.88
415.66	1241.07
415.87	1177.58
416.07	1304.56
416.28	1253.36
416.48	1370.09
416.68	1374.19
416.89	1413.10
417.09	1363.95
417.29	1216.49
417.50	1265.64
417.70	1230.83
417.91	1292.27
418.11	1243.12
418.31	1273.84
418.52	1357.80
418.72	1251.31
418.93	1271.79
419.13	1245.16
419.33	1279.98
419.54	1234.93
419.74	1253.36
419.94	1327.08
420.15	1257.45
420.35	1202.16
420.56	1265.64
420.76	1282.03
420.96	1298.41
421.17	1296.36
421.37	1282.03
421.57	1253.36
421.78	1304.56
421.98	1308.65
422.18	1386.47
422.39	1279.98
422.59	1218.54
422.80	1251.31
423.00	1269.74
423.20	1257.45
423.41	1269.74
423.61	1296.36
423.81	1320.94
424.02	1322.99
424.22	1302.51
424.42	1322.99
424.63	1247.21
424.83	1288.17
425.03	1294.32
425.24	1347.56
425.44	1341.42
425.64	1277.93
425.85	1357.80
426.05	1366.00
426.25	1302.51
426.46	1296.36
426.66	1404.91
426.86	1392.62
427.07	1288.17
427.27	1288.17
427.47	1640.42
427.68	1257.45
427.88	1363.95
428.08	1413.10
428.29	1286.12
428.49	1265.64
428.69	1486.83
428.90	1198.06
429.10	1214.45
429.30	1380.33
429.51	1243.12
429.71	1284.08
429.91	1218.54
430.12	1378.28
430.32	1464.30
430.52	1239.02
430.72	1269.74
430.93	1284.08
431.13	1349.61
431.33	1341.42
431.54	1382.38
431.74	1298.41
431.94	1275.88
432.15	1363.95
432.35	1353.71
432.55	1204.21
